# extract --main -x 73,94 /data/hitran/2000/lines
#
# molecule: H2O
# temperature:   296.00 K
# pressure:     1013.25 mb
# number of lines:                        284
# min, max line strength:            1.31e-30     1.17e-18
# format: vSEan
# min, max airbroad.  widths:           0.008        0.100
# min, max selfbroad. widths:           0.000        0.000
# min, max temp. exponent:              0.640        0.640
#   position    strength      energy airWidth    Tdep
#       cm-1   cm-1/cm-2        cm-1     cm-1        
   73.094200   3.400e-25  2740.42000  0.03560  0.6400
   73.112300   1.130e-25  2740.42000  0.03570  0.6400
   73.263070   2.120e-19   212.15600  0.08440  0.6400
   73.282009   1.750e-29  1884.84300  0.05830  0.6400
   73.314000   1.020e-25  1732.26400  0.08930  0.6400
   73.377395   2.750e-27   609.94660  0.07370  0.6400
   73.541153   1.630e-25   221.94610  0.09120  0.6400
   73.770102   2.050e-29  2266.17240  0.00770  0.6400
   73.781000   1.850e-26  1735.66600  0.09040  0.6400
   73.841345   3.700e-23   221.83610  0.09090  0.6400
   73.882000   1.850e-25  1055.05600  0.07130  0.6400
   73.908475   9.290e-25  1331.21720  0.08460  0.6400
   73.927000   2.430e-25  1658.33600  0.09450  0.6400
   73.960400   1.460e-25  2998.76800  0.07370  0.6400
   74.110000   2.160e-19   325.34800  0.09000  0.6400
   74.206000   4.380e-26  1661.46000  0.09580  0.6400
   74.219000   7.980e-23   324.66100  0.08560  0.6400
   74.284673   3.710e-28  1164.51020  0.06630  0.6400
   74.303600   4.980e-23  1739.48500  0.09170  0.6400
   74.314000   4.370e-22   324.04700  0.08440  0.6400
   74.514200   1.170e-22  1664.97100  0.09940  0.6400
   74.528000   1.710e-25  2045.92200  0.08660  0.6400
   74.742927   2.940e-25  1618.70040  0.08450  0.6400
   74.792000   5.950e-22   223.82800  0.08430  0.6400
   74.875440   3.380e-21   931.23700  0.07120  0.6400
   74.979000   3.920e-24  2595.81300  0.08750  0.6400
   74.991106   7.910e-25   949.57760  0.08790  0.6400
   75.135000   1.090e-22   224.30500  0.08530  0.6400
   75.274792   7.900e-26   889.57590  0.08110  0.6400
   75.307000   5.390e-26  3299.99100  0.09380  0.6400
   75.402000   1.610e-23  1279.79800  0.08240  0.6400
   75.448000   1.080e-24  1050.99100  0.07090  0.6400
   75.455359   5.170e-27  1543.24500  0.07740  0.6400
   75.465000   3.110e-26  2049.71500  0.08770  0.6400
   75.487000   1.230e-24   928.29700  0.07150  0.6400
   75.524720   2.980e-19   224.83800  0.08660  0.6400
   75.708607   1.090e-22   150.15630  0.09520  0.6400
   75.986496   2.840e-23   157.06470  0.09090  0.6400
   76.005000   6.830e-24   925.70100  0.07120  0.6400
   76.184127   5.300e-24   576.90470  0.08720  0.6400
   76.259871   3.160e-23   308.61570  0.08800  0.6400
   76.287000   2.960e-24  1281.27100  0.08340  0.6400
   76.318437   7.380e-25  1405.12570  0.08700  0.6400
   76.429864   7.940e-23    32.49640  0.10020  0.6400
   76.485882   1.130e-25  1846.40170  0.08270  0.6400
   76.525900   8.410e-23  2053.96900  0.09000  0.6400
   76.594625   1.340e-23   217.04190  0.09240  0.6400
   76.618200   6.150e-26  2688.08000  0.05860  0.6400
   76.638000   4.710e-26  1611.64900  0.06960  0.6400
   76.641464   2.740e-27   156.38230  0.09070  0.6400
   76.709815   2.740e-27   403.54910  0.08740  0.6400
   76.734700   2.010e-23   982.91200  0.07490  0.6400
   77.283000   1.850e-24  1534.36600  0.08020  0.6400
   77.306536   4.260e-27  1433.57260  0.03290  0.6400
   77.306574   4.260e-27  1433.57250  0.03290  0.6400
   77.319100   2.660e-28  3940.59000  0.02410  0.6400
   77.320750   8.120e-21  1282.91900  0.08530  0.6400
   77.338000   1.550e-22   204.75500  0.08230  0.6400
   77.492137   3.130e-27  2176.17770  0.05800  0.6400
   77.634692   2.930e-23   155.38900  0.08910  0.6400
   77.744000   3.380e-25  1536.15500  0.08110  0.6400
   77.913507   2.470e-24   402.32910  0.06070  0.6400
   77.926000   2.400e-25  1732.26400  0.09040  0.6400
   77.927914   2.470e-24   402.33100  0.06050  0.6400
   77.948000   4.290e-26  1735.66600  0.09160  0.6400
   77.966100   1.130e-22  1739.48500  0.09380  0.6400
   78.030000   5.560e-26  3221.96100  0.09940  0.6400
   78.079000   2.860e-23   205.48300  0.08320  0.6400
   78.178623   7.320e-24   295.48730  0.08130  0.6400
   78.197150   7.850e-20   704.21400  0.08280  0.6400
   78.228000   4.810e-26  3237.91700  0.09370  0.6400
   78.305160   9.200e-22  1538.15000  0.08280  0.6400
   78.445345   4.060e-23   217.04190  0.08860  0.6400
   78.455678   7.050e-30  2037.18930  0.04320  0.6400
   78.492000   2.920e-23   702.88600  0.08100  0.6400
   78.560785   5.310e-25   306.31480  0.08940  0.6400
   78.587712   3.510e-28  2037.05730  0.04350  0.6400
   78.613900   2.260e-29  4506.73700  0.02050  0.6400
   78.617630   2.740e-23  1616.45200  0.07370  0.6400
   78.709500   1.490e-26  3360.59900  0.05260  0.6400
   78.732495   7.410e-24   295.67750  0.08420  0.6400
   78.758000   1.610e-22   701.69600  0.07970  0.6400
   78.918730   7.880e-20   206.30100  0.08200  0.6400
   79.008100   6.910e-26  2533.79300  0.05750  0.6400
   79.112000   1.460e-23  1047.32700  0.08540  0.6400
   79.133700   2.880e-25  2919.63400  0.07560  0.6400
   79.153000   4.160e-26  2490.35500  0.06050  0.6400
   79.349974   6.310e-27  1331.21720  0.07040  0.6400
   79.460510   7.870e-23    29.80860  0.09810  0.6400
   79.665000   6.080e-22   141.56700  0.09040  0.6400
   79.669536   6.340e-28   916.12410  0.06770  0.6400
   79.718000   1.100e-22   141.90400  0.09160  0.6400
   79.764438   2.980e-26   916.02910  0.06490  0.6400
   79.774460   2.990e-19   142.27900  0.09380  0.6400
   79.785907   5.440e-24   885.06480  0.08190  0.6400
   80.003416   1.730e-26  1804.83960  0.06740  0.6400
   80.014251   1.050e-28  2392.86750  0.03350  0.6400
   80.014252   1.050e-28  2392.86750  0.03350  0.6400
   80.029342   4.090e-23   293.63660  0.08850  0.6400
   80.096600   1.110e-22  1920.76900  0.09000  0.6400
   80.176900   9.080e-27  2903.14700  0.04720  0.6400
   80.181000   4.190e-26  1916.67700  0.08560  0.6400
   80.256000   2.330e-25  1913.02500  0.08440  0.6400
   80.282000   2.680e-24  1048.65600  0.08640  0.6400
   80.449924   1.040e-22   225.86490  0.09150  0.6400
   80.484348   1.760e-24  1206.75470  0.08850  0.6400
   80.671000   5.650e-22   298.62000  0.08010  0.6400
   80.989000   8.020e-26  1914.88000  0.08450  0.6400
   80.997090   1.170e-20  1201.92200  0.07970  0.6400
   81.015000   1.030e-26  3266.76200  0.03260  0.6400
   81.018400   3.080e-26  3266.76200  0.03260  0.6400
   81.021968   7.560e-30  2523.12070  0.00770  0.6400
   81.033000   2.780e-29  4350.60300  0.02080  0.6400
   81.076800   3.430e-27  3058.40100  0.05310  0.6400
   81.307000   4.360e-24  1199.96400  0.07900  0.6400
   81.367000   1.040e-22   299.44000  0.08090  0.6400
   81.599000   2.410e-23  1198.19900  0.07760  0.6400
   81.618400   7.400e-21  1050.15800  0.08730  0.6400
   81.919881   4.240e-26  2087.13720  0.08040  0.6400
   81.943000   1.460e-26  1918.65900  0.08570  0.6400
   82.156370   2.860e-19   300.36200  0.08100  0.6400
   82.158680   1.490e-23   221.83610  0.09490  0.6400
   82.252663   2.030e-23   182.98360  0.09210  0.6400
   82.638968   3.530e-23   384.87560  0.08600  0.6400
   82.645640   1.560e-24  2042.31200  0.02810  0.6400
   82.750837   2.040e-23   225.86490  0.09040  0.6400
   82.863200   3.770e-23  2309.73100  0.08280  0.6400
   82.867471   7.130e-26   150.15630  0.09230  0.6400
   83.015200   3.950e-23  1922.90200  0.08750  0.6400
   83.073000   1.420e-26  2305.00600  0.08100  0.6400
   83.169724   9.290e-28   859.39260  0.08610  0.6400
   83.228797   6.220e-27  1247.98840  0.06080  0.6400
   83.252649   1.280e-28  1247.96450  0.06100  0.6400
   83.267000   7.930e-26  2300.77800  0.07970  0.6400
   83.390000   5.300e-26  3482.06400  0.09070  0.6400
   83.434400   3.040e-26  2512.37800  0.06810  0.6400
   83.463318   3.600e-27   490.42740  0.07880  0.6400
   83.501100   1.290e-25  3141.04700  0.05640  0.6400
   83.917503   1.760e-28  2836.87540  0.00770  0.6400
   84.047500   6.580e-25  1920.76900  0.07620  0.6400
   84.165900   1.030e-28  4087.98100  0.02530  0.6400
   84.165900   3.070e-28  4087.98100  0.02530  0.6400
   84.283000   4.180e-25   398.36100  0.07910  0.6400
   84.325600   3.070e-28  3654.21800  0.04760  0.6400
   84.368683   2.170e-23   221.94610  0.09320  0.6400
   84.452840   5.280e-22  1131.77600  0.07220  0.6400
   84.623000   1.860e-25  1128.93800  0.07120  0.6400
   84.623600   1.970e-25  2041.78400  0.07180  0.6400
   84.746000   1.020e-24  1126.43900  0.07080  0.6400
   84.760784   8.890e-26   598.56320  0.08340  0.6400
   84.784900   5.810e-24  2126.40700  0.08840  0.6400
   84.883300   1.800e-27  4038.40400  0.04130  0.6400
   84.973000   3.440e-22  1255.91300  0.05770  0.6400
   85.088000   8.190e-25  1355.20000  0.07460  0.6400
   85.348000   1.170e-26  3967.48900  0.09100  0.6400
   85.355933   3.200e-25   513.20730  0.08340  0.6400
   85.446000   2.720e-25   916.26000  0.04880  0.6400
   85.485000   1.530e-25  1357.55800  0.07500  0.6400
   85.502600   6.000e-27  3565.00400  0.04690  0.6400
   85.520000   3.320e-25  1814.08700  0.08430  0.6400
   85.628440   1.050e-20   756.72500  0.08450  0.6400
   85.680000   5.050e-26   918.10300  0.04950  0.6400
   85.784760   8.960e-22  1813.22400  0.07670  0.6400
   85.790000   3.340e-25  1810.67000  0.07660  0.6400
   85.826300   5.090e-29  4557.56000  0.03680  0.6400
   85.834000   1.840e-24  1808.36300  0.07540  0.6400
   85.892280   4.500e-22  1360.23600  0.07370  0.6400
   85.943000   6.020e-26  1817.62700  0.08530  0.6400
   85.949700   1.440e-22   920.16900  0.05020  0.6400
   85.967958   4.560e-25  1532.73240  0.07800  0.6400
   85.981715   2.630e-23   404.44570  0.08130  0.6400
   86.047275   1.710e-23   512.51590  0.08340  0.6400
   86.151000   1.060e-22   839.55000  0.08540  0.6400
   86.191360   3.890e-24  1024.56870  0.08860  0.6400
   86.196000   1.260e-25  1251.29200  0.05690  0.6400
   86.203000   2.220e-26  3791.37200  0.09620  0.6400
   86.273400   5.280e-24  2818.39800  0.07970  0.6400
   86.321600   1.540e-28  4557.54500  0.03740  0.6400
   86.329000   7.690e-26   398.88000  0.08010  0.6400
   86.342000   2.300e-25  1811.29100  0.08350  0.6400
   86.418800   1.610e-22  1821.59900  0.08660  0.6400
   86.423000   1.120e-26  2808.27400  0.07760  0.6400
   86.428000   1.630e-22   414.16700  0.07600  0.6400
   86.432000   1.370e-26  3890.83000  0.09620  0.6400
   86.468000   5.310e-26  3478.98700  0.09000  0.6400
   86.477315   2.730e-23   490.42740  0.08290  0.6400
   86.669596   1.250e-22   221.94610  0.09230  0.6400
   86.811200   4.180e-25  2327.91400  0.03590  0.6400
   86.860000   1.310e-26  2116.13500  0.08370  0.6400
   86.950100   1.070e-28  3940.54400  0.01530  0.6400
   86.991754   7.530e-28   995.79360  0.06890  0.6400
   87.051000   3.000e-23   415.12900  0.07670  0.6400
   87.161000   3.950e-24   753.70500  0.08560  0.6400
   87.173835   8.260e-28  1802.33390  0.02980  0.6400
   87.173838   8.260e-28  1802.33390  0.02980  0.6400
   87.247900   6.360e-28  4038.35500  0.04490  0.6400
   87.256000   4.170e-26  1815.08100  0.08460  0.6400
   87.265868   4.730e-25   403.16160  0.08190  0.6400
   87.274000   7.230e-25  1247.20600  0.05650  0.6400
   87.334500   1.740e-22  1631.38400  0.04970  0.6400
   87.369730   5.710e-23  1114.55000  0.05780  0.6400
   87.431000   1.950e-23   840.86600  0.08640  0.6400
   87.492000   2.340e-21   136.33600  0.09120  0.6400
   87.565107   1.310e-30  2502.43630  0.05300  0.6400
   87.690000   2.370e-26  3299.99100  0.09170  0.6400
   87.762100   8.200e-20   416.20900  0.07780  0.6400
   87.767000   4.280e-22   136.53900  0.09240  0.6400
   87.907757   2.610e-30  2272.16810  0.00770  0.6400
   87.921000   2.020e-26  1112.04200  0.02230  0.6400
   87.977905   1.330e-28  2272.09790  0.00770  0.6400
   88.077360   1.170e-18   136.76200  0.09620  0.6400
   88.152000   1.790e-26  3879.33600  0.08280  0.6400
   88.189140   5.040e-29  1668.09670  0.06170  0.6400
   88.228500   7.330e-24  2054.36900  0.04330  0.6400
   88.280000   1.130e-22  1819.33700  0.08440  0.6400
   88.397000   1.100e-25  1109.80200  0.05460  0.6400
   88.427123   2.380e-28  2087.13720  0.06550  0.6400
   88.517000   2.280e-23   751.03300  0.08450  0.6400
   88.651100   2.070e-25  2309.73100  0.06640  0.6400
   88.652327   9.200e-29  1481.44410  0.07570  0.6400
   88.653900   2.150e-22   399.45700  0.08110  0.6400
   88.747497   3.330e-28  1075.76270  0.06070  0.6400
   88.756000   1.190e-26  3796.98200  0.09780  0.6400
   88.782100   1.110e-26  3135.76600  0.04000  0.6400
   88.795237   1.600e-26  1075.71490  0.05580  0.6400
   88.814569   7.220e-27  2026.83040  0.06750  0.6400
   88.880400   5.380e-20   842.35700  0.08730  0.6400
   88.952000   1.810e-22   325.21500  0.07560  0.6400
   89.009000   6.410e-26  1624.84300  0.05620  0.6400
   89.042147   3.350e-23   384.87560  0.09020  0.6400
   89.068000   1.020e-24  1725.01900  0.09120  0.6400
   89.204506   9.950e-23    66.18450  0.09750  0.6400
   89.248000   3.320e-23   325.88100  0.07650  0.6400
   89.366000   1.840e-25  1728.26200  0.09240  0.6400
   89.370698   1.990e-28  2836.66990  0.00770  0.6400
   89.584520   9.010e-20   326.62500  0.07780  0.6400
   89.699400   2.270e-23  2054.34800  0.04540  0.6400
   89.700800   4.910e-22  1731.89800  0.09620  0.6400
   89.859700   5.440e-29  2617.72950  0.00770  0.6400
   90.001500   1.400e-25  1817.45100  0.08630  0.6400
   90.020773   3.090e-27  2707.58920  0.00770  0.6400
   90.203000   1.920e-26  3698.49200  0.09780  0.6400
   90.485000   3.750e-25  1619.05700  0.04840  0.6400
   90.534800   2.290e-24  2522.26700  0.03870  0.6400
   90.608102   4.340e-27  2175.56430  0.06700  0.6400
   90.841100   7.690e-25  2522.26300  0.03930  0.6400
   91.047180   1.540e-26  2339.94250  0.00770  0.6400
   91.068500   4.130e-25  2180.64400  0.06840  0.6400
   91.150900   2.380e-27  3831.17400  0.02940  0.6400
   91.151400   7.940e-28  3831.17400  0.02940  0.6400
   91.239034   1.620e-23   293.63660  0.09080  0.6400
   91.452000   2.000e-21    42.02300  0.09360  0.6400
   91.479900   4.300e-25  3162.25900  0.08280  0.6400
   91.673834   1.930e-23   609.94660  0.07800  0.6400
   91.881000   8.420e-26  1805.57800  0.08230  0.6400
   91.934000   1.590e-26  2037.96200  0.04220  0.6400
   91.959000   3.680e-22    42.18700  0.09480  0.6400
   92.130996   1.080e-26  2430.98970  0.00770  0.6400
   92.243174   7.890e-24   859.39260  0.08740  0.6400
   92.462000   2.340e-25  3289.24200  0.09620  0.6400
   92.530050   1.010e-18    42.37200  0.09780  0.6400
   92.532681   1.570e-27  2409.90360  0.00770  0.6400
   92.567233   5.260e-26  1049.12450  0.07260  0.6400
   92.573000   1.150e-25  2200.43800  0.07090  0.6400
   92.575283   3.440e-30  2266.17240  0.06700  0.6400
   92.721000   1.530e-26  1809.44700  0.08320  0.6400
   92.848400   1.120e-22  1908.01700  0.09070  0.6400
   93.100700   1.880e-24  1538.15000  0.06750  0.6400
   93.197906   1.270e-24   615.96880  0.04490  0.6400
   93.198981   1.270e-24   615.96890  0.04490  0.6400
   93.289000   4.300e-26  1903.57000  0.08750  0.6400
   93.456400   6.690e-23  1631.25100  0.05810  0.6400
   93.578000   7.140e-23   658.61000  0.08270  0.6400
   93.634000   4.950e-26  2037.93400  0.04410  0.6400
   93.648082   4.410e-24   480.24270  0.06720  0.6400
   93.664000   4.120e-23  1813.78800  0.08200  0.6400
   93.673000   2.450e-25  1899.60800  0.08640  0.6400
   93.697000   2.100e-26  2202.90000  0.06330  0.6400
   93.711000   1.550e-28  3738.54400  0.05240  0.6400
   93.711727   4.420e-24   480.25890  0.06820  0.6400
   93.760876   1.300e-25    15.50820  0.10000  0.6400
   93.848660   9.890e-24   373.66590  0.08140  0.6400
   93.862264   2.720e-27  1752.53940  0.06770  0.6400
   93.903401   2.370e-27  2266.17240  0.00770  0.6400
