# extract --main -x 73,94 /data/hitran/2000/lines
#
# molecule: O2
# temperature:   296.00 K
# pressure:     1013.25 mb
# number of lines:                        229
# min, max line strength:            2.62e-35     3.39e-25
# format: vSEan
# min, max airbroad.  widths:           0.034        0.048
# min, max selfbroad. widths:           0.033        0.047
# min, max temp. exponent:              0.710        0.710
#   position    strength      energy airWidth    Tdep
#       cm-1   cm-1/cm-2        cm-1     cm-1        
   73.082169   6.333e-29  1743.01600  0.03900  0.7100
   73.357129   4.798e-34   219.36180  0.04800  0.7100
   73.357201   7.079e-32   219.36180  0.04800  0.7100
   73.357254   3.825e-30   219.36170  0.04800  0.7100
   73.359919   7.957e-34   219.36190  0.04800  0.7100
   73.360016   1.128e-31   219.36180  0.04800  0.7100
   73.360088   4.138e-30   219.36180  0.04800  0.7100
   73.362948   7.374e-34   219.36210  0.04800  0.7100
   73.363074   1.269e-31   219.36190  0.04800  0.7100
   73.363171   4.479e-30   219.36180  0.04800  0.7100
   73.366216   3.819e-34   219.36220  0.04800  0.7100
   73.366375   1.131e-31   219.36210  0.04800  0.7100
   73.366501   4.848e-30   219.36190  0.04800  0.7100
   73.369920   7.106e-32   219.36220  0.04800  0.7100
   73.370080   5.245e-30   219.36210  0.04800  0.7100
   73.373906   5.671e-30   219.36220  0.04800  0.7100
   73.413712   7.769e-28   211.46050  0.03900  0.7100
   73.869303   1.201e-25   188.71340  0.03900  0.7100
   75.241448   3.255e-35   217.29780  0.04800  0.7100
   75.241612   6.015e-35   217.29460  0.04800  0.7100
   75.241805   7.793e-35   217.29130  0.04800  0.7100
   75.242024   7.949e-35   217.28770  0.04800  0.7100
   75.242271   5.688e-35   217.28390  0.04800  0.7100
   75.273865   5.497e-35   217.45830  0.04800  0.7100
   75.274247   7.497e-35   217.45420  0.04800  0.7100
   75.274577   7.155e-35   217.45040  0.04800  0.7100
   75.274858   5.375e-35   217.44700  0.04800  0.7100
   75.275090   2.828e-35   217.44390  0.04800  0.7100
   75.307250   2.179e-28   211.46050  0.03900  0.7100
   75.418329   1.915e-29   217.30060  0.04800  0.7100
   75.421211   3.258e-31   217.29780  0.04800  0.7100
   75.421216   3.262e-31   217.30060  0.04800  0.7100
   75.424098   2.040e-29   217.29780  0.04800  0.7100
   75.427213   5.194e-31   217.29460  0.04800  0.7100
   75.427253   5.200e-31   217.29780  0.04800  0.7100
   75.430368   2.191e-29   217.29460  0.04800  0.7100
   75.433713   5.841e-31   217.29130  0.04800  0.7100
   75.433796   5.850e-31   217.29460  0.04800  0.7100
   75.437140   2.368e-29   217.29130  0.04800  0.7100
   75.440709   5.204e-31   217.28770  0.04800  0.7100
   75.440845   5.211e-31   217.29130  0.04800  0.7100
   75.444414   2.571e-29   217.28770  0.04800  0.7100
   75.448202   3.267e-31   217.28390  0.04800  0.7100
   75.448400   3.272e-31   217.28770  0.04800  0.7100
   75.452188   2.800e-29   217.28390  0.04800  0.7100
   76.765538   1.519e-28   248.79530  0.03850  0.7100
   77.318940   5.904e-30   217.30060  0.04800  0.7100
   77.321822   9.204e-32   217.29780  0.04800  0.7100
   77.321863   6.349e-30   217.29780  0.04800  0.7100
   77.324937   5.290e-34   217.29460  0.04800  0.7100
   77.324979   1.467e-31   217.29460  0.04800  0.7100
   77.325040   6.832e-30   217.29460  0.04800  0.7100
   77.328323   8.818e-34   217.29130  0.04800  0.7100
   77.328384   1.649e-31   217.29130  0.04800  0.7100
   77.328468   7.350e-30   217.29130  0.04800  0.7100
   77.331953   8.209e-34   217.28770  0.04800  0.7100
   77.332036   1.469e-31   217.28770  0.04800  0.7100
   77.332147   7.905e-30   217.28770  0.04800  0.7100
   77.335825   4.269e-34   217.28390  0.04800  0.7100
   77.335935   9.219e-32   217.28390  0.04800  0.7100
   77.336076   8.499e-30   217.28390  0.04800  0.7100
   78.843451   6.944e-28   246.71740  0.03800  0.7100
   78.926601   3.165e-34   255.60040  0.04740  0.7100
   78.926667   5.468e-32   255.60030  0.04740  0.7100
   78.926714   3.486e-30   255.60030  0.04740  0.7100
   78.929430   5.280e-34   255.60050  0.04740  0.7100
   78.929520   8.721e-32   255.60040  0.04740  0.7100
   78.929586   3.749e-30   255.60030  0.04740  0.7100
   78.932482   4.922e-34   255.60060  0.04740  0.7100
   78.932599   9.812e-32   255.60050  0.04740  0.7100
   78.932689   4.033e-30   255.60040  0.04740  0.7100
   78.935756   2.561e-34   255.60080  0.04740  0.7100
   78.935906   8.744e-32   255.60060  0.04740  0.7100
   78.936023   4.339e-30   255.60050  0.04740  0.7100
   78.939440   5.488e-32   255.60080  0.04740  0.7100
   78.939589   4.668e-30   255.60060  0.04740  0.7100
   78.943386   5.018e-30   255.60080  0.04740  0.7100
   80.463355   3.936e-29  1816.10050  0.03850  0.7100
   80.727701   1.932e-28   246.71740  0.03800  0.7100
   80.801669   2.959e-35   253.52660  0.04740  0.7100
   80.801825   5.415e-35   253.52340  0.04740  0.7100
   80.802005   6.950e-35   253.52010  0.04740  0.7100
   80.802209   7.027e-35   253.51650  0.04740  0.7100
   80.802435   4.983e-35   253.51280  0.04740  0.7100
   80.833203   4.833e-35   253.70700  0.04740  0.7100
   80.833552   6.667e-35   253.70300  0.04740  0.7100
   80.833857   6.445e-35   253.69920  0.04740  0.7100
   80.834118   4.905e-35   253.69580  0.04740  0.7100
   80.834338   2.616e-35   253.69270  0.04740  0.7100
   80.997534   1.738e-29   253.52950  0.04740  0.7100
   81.000453   2.521e-31   253.52660  0.04740  0.7100
   81.000453   2.524e-31   253.52950  0.04740  0.7100
   81.003372   1.845e-29   253.52660  0.04740  0.7100
   81.006506   4.020e-31   253.52340  0.04740  0.7100
   81.006541   4.025e-31   253.52660  0.04740  0.7100
   81.009676   1.972e-29   253.52340  0.04740  0.7100
   81.013023   4.521e-31   253.52010  0.04740  0.7100
   81.013100   4.528e-31   253.52340  0.04740  0.7100
   81.016447   2.119e-29   253.52010  0.04740  0.7100
   81.020002   4.027e-31   253.51650  0.04740  0.7100
   81.020130   4.033e-31   253.52010  0.04740  0.7100
   81.023685   2.286e-29   253.51650  0.04740  0.7100
   81.027443   2.526e-31   253.51280  0.04740  0.7100
   81.027632   2.530e-31   253.51650  0.04740  0.7100
   81.031390   2.474e-29   253.51280  0.04740  0.7100
   81.386726   7.444e-26   262.58270  0.03850  0.7100
   82.182701   1.345e-28   286.76780  0.03750  0.7100
   82.550903   1.796e-28  1814.01290  0.03800  0.7100
   82.888524   5.335e-30   253.52950  0.04740  0.7100
   82.891442   7.135e-32   253.52660  0.04740  0.7100
   82.891479   5.709e-30   253.52660  0.04740  0.7100
   82.894577   3.542e-34   253.52340  0.04740  0.7100
   82.894614   1.138e-31   253.52340  0.04740  0.7100
   82.894670   6.110e-30   253.52340  0.04740  0.7100
   82.897961   5.936e-34   253.52010  0.04740  0.7100
   82.898017   1.280e-31   253.52010  0.04740  0.7100
   82.898095   6.541e-30   253.52010  0.04740  0.7100
   82.901572   5.556e-34   253.51650  0.04740  0.7100
   82.901650   1.139e-31   253.51650  0.04740  0.7100
   82.901754   7.000e-30   253.51650  0.04740  0.7100
   82.905408   2.900e-34   253.51280  0.04740  0.7100
   82.905512   7.147e-32   253.51280  0.04740  0.7100
   82.905646   7.489e-30   253.51280  0.04740  0.7100
   83.468541   3.393e-25   260.50090  0.03800  0.7100
   84.269830   6.097e-28   284.68070  0.03600  0.7100
   84.434954   4.985e-29  1814.01290  0.03800  0.7100
   84.492703   2.092e-34   294.61970  0.04690  0.7100
   84.492764   4.184e-32   294.61960  0.04690  0.7100
   84.492806   3.108e-30   294.61960  0.04690  0.7100
   84.495566   3.510e-34   294.61980  0.04690  0.7100
   84.495649   6.676e-32   294.61970  0.04690  0.7100
   84.495710   3.324e-30   294.61960  0.04690  0.7100
   84.498637   3.287e-34   294.61990  0.04690  0.7100
   84.498748   7.511e-32   294.61980  0.04690  0.7100
   84.498831   3.559e-30   294.61970  0.04690  0.7100
   84.501918   1.718e-34   294.62000  0.04690  0.7100
   84.502059   6.690e-32   294.61990  0.04690  0.7100
   84.502169   3.809e-30   294.61980  0.04690  0.7100
   84.505583   4.199e-32   294.62000  0.04690  0.7100
   84.505724   4.077e-30   294.61990  0.04690  0.7100
   84.509496   4.361e-30   294.62000  0.04690  0.7100
   85.348621   9.415e-26   260.50090  0.03800  0.7100
   86.144974   1.684e-28   284.68070  0.03600  0.7100
   86.358651   2.636e-35   292.53620  0.04690  0.7100
   86.358798   4.782e-35   292.53310  0.04690  0.7100
   86.358967   6.086e-35   292.52970  0.04690  0.7100
   86.359157   6.106e-35   292.52620  0.04690  0.7100
   86.359366   4.297e-35   292.52250  0.04690  0.7100
   86.389471   4.180e-35   292.73610  0.04690  0.7100
   86.389792   5.825e-35   292.73210  0.04690  0.7100
   86.390075   5.691e-35   292.72840  0.04690  0.7100
   86.390321   4.381e-35   292.72500  0.04690  0.7100
   86.573180   1.545e-29   292.53920  0.04690  0.7100
   86.576126   1.936e-31   292.53920  0.04690  0.7100
   86.576131   1.934e-31   292.53620  0.04690  0.7100
   86.579077   1.635e-29   292.53620  0.04690  0.7100
   86.582229   3.084e-31   292.53310  0.04690  0.7100
   86.582259   3.089e-31   292.53620  0.04690  0.7100
   86.585411   1.741e-29   292.53310  0.04690  0.7100
   86.588760   3.468e-31   292.52970  0.04690  0.7100
   86.588832   3.474e-31   292.53310  0.04690  0.7100
   86.592181   1.861e-29   292.52970  0.04690  0.7100
   86.595724   3.088e-31   292.52620  0.04690  0.7100
   86.595846   3.094e-31   292.52970  0.04690  0.7100
   86.599389   1.997e-29   292.52620  0.04690  0.7100
   86.603120   1.936e-31   292.52250  0.04690  0.7100
   86.603301   1.940e-31   292.52620  0.04690  0.7100
   86.607033   2.148e-29   292.52250  0.04690  0.7100
   87.596503   1.169e-28   327.44510  0.03600  0.7100
   88.454744   4.727e-30   292.53920  0.04690  0.7100
   88.457694   5.487e-32   292.53620  0.04690  0.7100
   88.457728   5.036e-30   292.53620  0.04690  0.7100
   88.460846   2.376e-34   292.53310  0.04690  0.7100
   88.460879   8.751e-32   292.53310  0.04690  0.7100
   88.460931   5.368e-30   292.53310  0.04690  0.7100
   88.464229   4.001e-34   292.52970  0.04690  0.7100
   88.464280   9.842e-32   292.52970  0.04690  0.7100
   88.464354   5.722e-30   292.52970  0.04690  0.7100
   88.467823   3.760e-34   292.52620  0.04690  0.7100
   88.467896   8.766e-32   292.52620  0.04690  0.7100
   88.467995   6.096e-30   292.52620  0.04690  0.7100
   88.471628   1.970e-34   292.52250  0.04690  0.7100
   88.471726   5.496e-32   292.52250  0.04690  0.7100
   88.471853   6.492e-30   292.52250  0.04690  0.7100
   89.692706   5.262e-28   325.34890  0.03400  0.7100
   90.055252   1.384e-34   336.41810  0.04630  0.7100
   90.055308   3.171e-32   336.41800  0.04630  0.7100
   90.055345   2.713e-30   336.41800  0.04630  0.7100
   90.058144   2.333e-34   336.41820  0.04630  0.7100
   90.058222   5.062e-32   336.41810  0.04630  0.7100
   90.058279   2.890e-30   336.41800  0.04630  0.7100
   90.061233   2.194e-34   336.41830  0.04630  0.7100
   90.061337   5.695e-32   336.41820  0.04630  0.7100
   90.061415   3.080e-30   336.41810  0.04630  0.7100
   90.064518   1.150e-34   336.41840  0.04630  0.7100
   90.064652   5.072e-32   336.41830  0.04630  0.7100
   90.064756   3.282e-30   336.41820  0.04630  0.7100
   90.068167   3.181e-32   336.41840  0.04630  0.7100
   90.068301   3.497e-30   336.41830  0.04630  0.7100
   90.072050   3.725e-30   336.41840  0.04630  0.7100
   91.558891   1.445e-28   325.34890  0.03400  0.7100
   91.801624   2.972e-29  1898.45020  0.03600  0.7100
   91.912328   4.144e-35   334.32210  0.04630  0.7100
   91.912487   5.235e-35   334.31870  0.04630  0.7100
   91.912664   5.216e-35   334.31520  0.04630  0.7100
   91.912858   3.645e-35   334.31150  0.04630  0.7100
   91.942423   3.559e-35   334.54420  0.04630  0.7100
   91.942721   5.003e-35   334.54020  0.04630  0.7100
   91.942986   4.933e-35   334.53650  0.04630  0.7100
   91.943217   3.834e-35   334.53310  0.04630  0.7100
   92.145118   1.347e-29   334.32820  0.04630  0.7100
   92.148089   1.471e-31   334.32820  0.04630  0.7100
   92.148097   1.469e-31   334.32530  0.04630  0.7100
   92.151068   1.421e-29   334.32530  0.04630  0.7100
   92.154234   2.344e-31   334.32210  0.04630  0.7100
   92.154261   2.348e-31   334.32530  0.04630  0.7100
   92.157427   1.507e-29   334.32210  0.04630  0.7100
   92.160778   2.636e-31   334.31870  0.04630  0.7100
   92.160846   2.642e-31   334.32210  0.04630  0.7100
   92.164198   1.605e-29   334.31870  0.04630  0.7100
   92.167729   2.347e-31   334.31520  0.04630  0.7100
   92.167846   2.352e-31   334.31870  0.04630  0.7100
   92.171378   1.714e-29   334.31520  0.04630  0.7100
   92.175086   1.471e-31   334.31150  0.04630  0.7100
   92.175261   1.474e-31   334.31520  0.04630  0.7100
   92.178968   1.835e-29   334.31150  0.04630  0.7100
   92.851521   5.593e-26   345.84950  0.03600  0.7100
   93.006760   9.988e-29   370.82560  0.03650  0.7100
   93.908723   1.335e-28  1896.34310  0.03400  0.7100
