# extract -mOH -x 73,94 -oOH.vSEan /data/hitran/2000/lines
#
# molecule: OH
# temperature:   296.00 K
# pressure:     1013.25 mb
# number of lines:                         72
# min, max line strength:            1.66e-78     1.29e-18
# format: vSEan
# min, max airbroad.  widths:           0.040        0.095
# min, max selfbroad. widths:           0.000        0.000
# min, max temp. exponent:              0.660        0.660
#   position    strength      energy airWidth    Tdep
#       cm-1   cm-1/cm-2        cm-1     cm-1        
   73.220000   2.014e-64 21710.57170  0.08600  0.6600
   73.244210   2.014e-64 21710.74710  0.08600  0.6600
   73.547550   2.681e-21   355.91500  0.05300  0.6600
   73.940560   4.941e-67 21941.92460  0.04000  0.6600
   74.008790   2.625e-78 28286.84030  0.08600  0.6600
   74.093800   2.630e-78 28286.90380  0.08600  0.6600
   74.158680   2.733e-21   355.12040  0.05300  0.6600
   74.583830   5.037e-67 21941.21840  0.04000  0.6600
   74.828110   2.948e-40 10210.54690  0.09500  0.6600
   74.894250   8.616e-29  3911.37850  0.05300  0.6600
   74.943550   2.956e-40 10210.59010  0.09500  0.6600
   75.452620   8.766e-29  3910.63470  0.05300  0.6600
   75.665420   4.256e-72 24334.54840  0.04000  0.6600
   76.236790   4.328e-72 24333.92270  0.04000  0.6600
   76.284800   6.151e-36  7301.39280  0.05300  0.6600
   76.792040   6.247e-36  7300.69910  0.05300  0.6600
   77.245730   6.509e-59 19128.21520  0.08600  0.6600
   77.270300   6.506e-59 19128.40670  0.08600  0.6600
   77.421770   8.510e-77 26548.47300  0.04000  0.6600
   77.720930   9.657e-43 10527.83120  0.05300  0.6600
   77.771660   2.181e-33  6971.34680  0.09500  0.6600
   77.896980   2.187e-33  6971.39400  0.09500  0.6600
   77.923840   8.633e-77 26547.93670  0.04000  0.6600
   78.178790   9.791e-43 10527.18750  0.05300  0.6600
   79.091460   6.755e-74 26242.14350  0.08600  0.6600
   79.194810   6.768e-74 26242.22130  0.08600  0.6600
   79.271580   3.318e-49 13591.72230  0.05300  0.6600
   79.682530   3.359e-49 13591.12750  0.05300  0.6600
   80.732880   3.549e-26  3568.47250  0.09500  0.6600
   80.799310   2.481e-55 16493.09380  0.05300  0.6600
   80.868260   3.559e-26  3568.52380  0.09500  0.6600
   81.166030   2.508e-55 16492.54920  0.05300  0.6600
   81.216680   4.630e-53 16379.55400  0.08600  0.6600
   81.240130   4.628e-53 16379.75750  0.08600  0.6600
   82.371050   4.058e-61 19230.73020  0.05300  0.6600
   82.692400   4.096e-61 19230.23520  0.05300  0.6600
   83.723340   1.283e-18     0.00000  0.09500  0.6600
   83.833590   4.176e-69 24009.51710  0.08600  0.6600
   83.869000   1.287e-18     0.05560  0.09500  0.6600
   83.882870   1.664e-78 28461.31810  0.06500  0.6600
   83.913550   1.666e-78 28461.21550  0.06500  0.6600
   83.954910   4.185e-69 24009.60930  0.08600  0.6600
   83.980240   1.465e-66 21801.87840  0.05300  0.6600
   84.260750   1.477e-66 21801.43470  0.05300  0.6600
   85.168680   7.189e-47 13467.25250  0.08600  0.6600
   85.191220   7.185e-47 13467.47000  0.08600  0.6600
   85.607370   1.188e-71 24201.85220  0.05300  0.6600
   85.854800   1.197e-71 24201.46040  0.05300  0.6600
   86.664800   9.698e-21   202.37960  0.06500  0.6600
   86.840630   9.755e-21   201.93140  0.06500  0.6600
   87.227370   2.227e-76 26423.48720  0.05300  0.6600
   87.447120   2.241e-76 26423.15300  0.05300  0.6600
   87.950490   2.968e-28  3763.52770  0.06500  0.6600
   88.102640   2.984e-28  3763.10980  0.06500  0.6600
   88.351540   5.940e-64 21599.07040  0.08600  0.6600
   88.489030   5.953e-64 21599.17570  0.08600  0.6600
   89.129970   2.431e-40 10392.39820  0.08600  0.6600
   89.150660   2.429e-40 10392.62720  0.08600  0.6600
   89.267780   2.018e-35  7159.15640  0.06500  0.6600
   89.397540   2.027e-35  7158.76840  0.06500  0.6600
   90.205110   4.236e-74 26420.50950  0.06500  0.6600
   90.235070   4.242e-74 26420.36510  0.06500  0.6600
   90.616550   3.017e-42 10391.16130  0.06500  0.6600
   90.725450   3.029e-42 10390.80270  0.06500  0.6600
   92.063420   9.861e-49 13460.59780  0.06500  0.6600
   92.153370   9.894e-49 13460.26780  0.06500  0.6600
   92.717960   1.892e-58 19017.79300  0.08600  0.6600
   92.871470   1.896e-58 19017.91170  0.08600  0.6600
   93.124140   1.794e-33  7155.04180  0.08600  0.6600
   93.142450   1.793e-33  7155.28170  0.08600  0.6600
   93.468060   7.011e-55 16367.52960  0.06500  0.6600
   93.541770   7.031e-55 16367.22890  0.06500  0.6600
